i,t_v,tensión(V)
0,1668000971.1735234,-1.89841000E-04

0,1668000971.6935182,-1.89914000E-04

0,1668000972.223513,-1.89685000E-04

0,1668000972.7435076,-1.89820000E-04

0,1668000973.2735023,-1.90070000E-04

0,1668000973.793497,-1.90299000E-04

0,1668000974.3234918,-1.90101000E-04

0,1668000974.8434868,-1.90007000E-04

0,1668000975.3734815,-1.90059000E-04

0,1668000975.893476,-1.90080000E-04

0,1668000976.4234707,-1.89935000E-04

0,1668000976.9434657,-1.99042000E-04

0,1668000977.4734604,-1.89893000E-04

0,1668000977.9934552,-1.85261000E-04

0,1668000978.52345,-1.90268000E-04

0,1668000979.0494447,-1.90174000E-04

0,1668000979.5694394,-1.90039000E-04

0,1668000980.0994341,-1.90059000E-04

0,1668000980.619429,-1.90018000E-04

0,1668000981.1494236,-1.86416000E-04

0,1668000981.6694186,-1.91194000E-04

0,1668000982.1994133,-1.89830000E-04

0,1668000982.720408,-1.90465000E-04

0,1668000983.2404027,-1.89487000E-04

0,1668000983.7703974,-1.89768000E-04

0,1668000984.2903924,-1.89404000E-04

0,1668000984.8203871,-1.89768000E-04

0,1668000985.3403816,-1.89622000E-04

0,1668000985.8683765,-1.90174000E-04

0,1668000986.3953714,-1.90049000E-04

0,1668000986.9153662,-1.89924000E-04

0,1668000987.445361,-1.90330000E-04

0,1668000987.9653559,-1.90205000E-04

0,1668000988.4953504,-1.90268000E-04

0,1668000989.015345,-1.89987000E-04

0,1668000989.5453398,-1.89997000E-04

0,1668000990.0653348,-1.89997000E-04

0,1668000990.5953293,-1.89810000E-04

0,1668000991.1153243,-1.89706000E-04

0,1668000991.639319,-1.89393000E-04

0,1668000992.169314,-1.89508000E-04

0,1668000992.6893086,-1.89747000E-04

0,1668000993.2193034,-1.89581000E-04

0,1668000993.739298,-1.89893000E-04

0,1668000994.266293,-1.89893000E-04

0,1668000994.7862875,-1.90122000E-04

0,1668000995.3102825,-1.89310000E-04

0,1668000995.8402772,-1.89549000E-04

0,1668000996.3602722,-1.89529000E-04

0,1668000996.890267,-1.89383000E-04

0,1668000997.4142618,-1.89175000E-04

0,1668000997.9442565,-1.89383000E-04

0,1668000998.464251,-1.89300000E-04

0,1668000998.994246,-1.89008000E-04

0,1668000999.5142407,-1.89185000E-04

0,1668001000.0442355,-1.89300000E-04

0,1668001000.5642302,-1.88810000E-04

0,1668001001.094225,-1.88935000E-04

0,1668001001.6142197,-1.89445000E-04

0,1668001002.1442146,-1.89404000E-04

0,1668001002.6552095,-1.88748000E-04

0,1668001003.1982043,-1.88696000E-04

0,1668001003.7181988,-1.89008000E-04

0,1668001004.2481935,-1.87853000E-04

0,1668001004.7681885,-1.86354000E-04

0,1668001005.2981832,-1.87468000E-04

0,1668001005.8181777,-1.87884000E-04

0,1668001006.3481724,-1.87218000E-04

0,1668001006.8691673,-1.87613000E-04

0,1668001007.399162,-1.87145000E-04

0,1668001007.919157,-1.86510000E-04

0,1668001008.4491515,-1.87031000E-04

0,1668001008.9791462,-1.87478000E-04

0,1668001009.4991412,-1.87249000E-04

0,1668001010.029136,-1.87093000E-04

0,1668001010.5491304,-1.86958000E-04

0,1668001011.0791252,-1.87790000E-04

0,1668001011.60612,-1.86833000E-04

0,1668001012.123115,-1.86344000E-04

0,1668001012.6531098,-1.86760000E-04

0,1668001013.1831045,-1.85532000E-04

0,1668001013.7010992,-1.84252000E-04

0,1668001014.2310941,-1.83356000E-04

0,1668001014.7510889,-1.83273000E-04

0,1668001015.2810833,-1.83065000E-04

0,1668001015.811078,-1.83252000E-04

0,1668001016.331073,-1.83814000E-04

0,1668001016.8610678,-1.83960000E-04

0,1668001017.3810625,-1.83866000E-04

0,1668001017.9110572,-1.82950000E-04

0,1668001018.431052,-1.82097000E-04

0,1668001018.9610467,-1.82430000E-04

0,1668001019.4810414,-1.82597000E-04

0,1668001020.0110362,-1.82107000E-04

0,1668001020.5310311,-1.82378000E-04

0,1668001021.0610259,-1.82451000E-04

0,1668001021.5810204,-1.82586000E-04

0,1668001022.111015,-1.82586000E-04

0,1668001022.63801,-1.81982000E-04

0,1668001023.1590047,-1.82024000E-04

0,1668001023.6789997,-1.82420000E-04

0,1668001024.2099943,-1.83565000E-04

0,1668001024.729989,-1.83450000E-04

0,1668001025.2599838,-1.83398000E-04

0,1668001025.7799785,-1.82763000E-04

0,1668001026.3099732,-1.83741000E-04

0,1668001026.8309681,-1.84324000E-04

0,1668001027.3609629,-1.84012000E-04

0,1668001027.8809576,-1.84564000E-04

0,1668001028.410952,-1.84428000E-04

0,1668001028.930947,-1.84470000E-04

0,1668001029.450942,-1.83606000E-04

0,1668001029.9809368,-1.82597000E-04

0,1668001030.5009313,-1.82805000E-04

0,1668001031.030926,-1.82357000E-04

0,1668001031.550921,-1.80900000E-04

0,1668001032.0809157,-1.80078000E-04

0,1668001032.6009104,-1.80099000E-04

0,1668001033.1309052,-1.80681000E-04

0,1668001033.6509,-1.79266000E-04

0,1668001034.1808946,-1.77684000E-04

0,1668001034.7008893,-1.77142000E-04

0,1668001035.230884,-1.77371000E-04

0,1668001035.7608788,-1.76893000E-04

0,1668001036.2808735,-1.74561000E-04

0,1668001036.8108683,-1.75082000E-04

0,1668001037.330863,-1.75800000E-04

0,1668001037.860858,-1.75935000E-04

0,1668001038.3808525,-1.76820000E-04

0,1668001038.9108472,-1.77319000E-04

0,1668001039.4308422,-1.75925000E-04

0,1668001039.960837,-1.77038000E-04

0,1668001040.4808314,-1.78423000E-04

0,1668001041.0108263,-1.78881000E-04

0,1668001041.530821,-1.78777000E-04

0,1668001042.050816,-1.78756000E-04

0,1668001042.5808105,-1.78964000E-04

0,1668001043.1008053,-1.78933000E-04

0,1668001043.6308002,-1.78860000E-04

0,1668001044.151795,-1.79328000E-04

0,1668001044.6817896,-1.79193000E-04

0,1668001045.2017844,-1.78516000E-04

0,1668001045.731779,-1.78797000E-04

0,1668001046.2517738,-1.78974000E-04

0,1668001046.7817688,-1.79495000E-04

0,1668001047.3007636,-1.79370000E-04

0,1668001047.8247585,-1.79203000E-04

0,1668001048.3547533,-1.78777000E-04

0,1668001048.879748,-1.78475000E-04

0,1668001049.399743,-1.77413000E-04

0,1668001049.9297378,-1.75633000E-04

0,1668001050.4497323,-1.73489000E-04

0,1668001050.979727,-1.71657000E-04

0,1668001051.499722,-1.69784000E-04

0,1668001052.0297165,-1.68920000E-04

0,1668001052.5497115,-1.69347000E-04

0,1668001053.0797062,-1.69576000E-04

0,1668001053.599701,-1.69086000E-04

0,1668001054.1296954,-1.68701000E-04

0,1668001054.6496904,-1.68774000E-04

0,1668001055.179685,-1.68732000E-04

0,1668001055.69968,-1.68587000E-04

0,1668001056.2296746,-1.69503000E-04

0,1668001056.7496693,-1.71220000E-04

0,1668001057.279664,-1.71782000E-04

0,1668001057.799659,-1.72105000E-04

0,1668001058.3296535,-1.72677000E-04

0,1668001058.8496485,-1.73406000E-04

0,1668001059.3796432,-1.73645000E-04

0,1668001059.899638,-1.74134000E-04

0,1668001060.4296324,-1.74915000E-04

0,1668001060.9596272,-1.76008000E-04

0,1668001061.4796221,-1.76039000E-04

0,1668001062.0096169,-1.75956000E-04

0,1668001062.5296116,-1.76362000E-04

0,1668001063.0596063,-1.76934000E-04

0,1668001063.579601,-1.75977000E-04

0,1668001064.109596,-1.74624000E-04

0,1668001064.6295905,-1.74509000E-04

0,1668001065.1595852,-1.74166000E-04

0,1668001065.6795802,-1.73864000E-04

0,1668001066.209575,-1.74551000E-04

0,1668001066.7395694,-1.74322000E-04

0,1668001067.2595644,-1.74363000E-04

0,1668001067.791559,-1.74353000E-04

0,1668001068.3115547,-1.74176000E-04

0,1668001068.8415544,-1.74166000E-04

0,1668001069.3615544,-1.73916000E-04

0,1668001069.8915546,-1.73957000E-04

0,1668001070.4115546,-1.73843000E-04

0,1668001070.9415545,-1.72948000E-04

0,1668001071.4665546,-1.72271000E-04

0,1668001071.9865546,-1.72375000E-04

0,1668001072.5165546,-1.71876000E-04

0,1668001073.0365546,-1.70877000E-04

0,1668001073.5665545,-1.70835000E-04

0,1668001074.0965545,-1.70096000E-04

0,1668001074.6165545,-1.70523000E-04

0,1668001075.1435544,-1.71699000E-04

0,1668001075.6735544,-1.72375000E-04

0,1668001076.1935544,-1.72136000E-04

0,1668001076.7235546,-1.71845000E-04

0,1668001077.2435546,-1.72240000E-04

0,1668001077.7735543,-1.72667000E-04

0,1668001078.2935545,-1.72063000E-04

0,1668001078.8235545,-1.71969000E-04

0,1668001079.3435545,-1.72875000E-04

0,1668001079.8735545,-1.73260000E-04

0,1668001080.3975544,-1.72937000E-04

0,1668001080.9175544,-1.72552000E-04

0,1668001081.4475546,-1.72636000E-04

0,1668001081.9675546,-1.72448000E-04

0,1668001082.4975545,-1.71564000E-04

0,1668001083.0175545,-1.68472000E-04

0,1668001083.5455544,-1.64611000E-04

0,1668001084.0535545,-1.60759000E-04

0,1668001084.5895545,-1.56929000E-04

0,1668001085.1215544,-1.54036000E-04

0,1668001085.6415544,-1.52329000E-04

0,1668001086.1715546,-1.51850000E-04

0,1668001086.6955545,-1.52110000E-04

0,1668001087.2155545,-1.53411000E-04

0,1668001087.7365544,-1.54535000E-04

0,1668001088.2695544,-1.55399000E-04

0,1668001088.7915545,-1.56534000E-04

0,1668001089.3115547,-1.57148000E-04

0,1668001089.8415544,-1.57044000E-04

0,1668001090.3675547,-1.57117000E-04

0,1668001090.8875546,-1.59573000E-04

0,1668001091.4205544,-7.88320000E-04

0,1668001091.9405544,-1.16987700E-03

0,1668001092.4705546,-1.08266400E-03

0,1668001092.9905546,-8.31661000E-04

0,1668001093.5155547,-1.10911200E-03

0,1668001094.0455544,-1.23028800E-03

0,1668001094.5655544,-8.50407000E-04

0,1668001095.0865545,-8.42413000E-04

0,1668001095.6155546,-9.35486000E-04

0,1668001096.1375544,-1.14559400E-03

0,1668001096.6695545,-1.01414500E-03

0,1668001097.1945546,-1.02561500E-03

0,1668001097.7145545,-6.03017000E-04

0,1668001098.2445545,-1.04395500E-03

0,1668001098.7645545,-1.09959900E-03

0,1668001099.2945547,-9.38671000E-04

0,1668001099.8145547,-8.94414000E-04

0,1668001100.3445544,-1.09365600E-03

0,1668001100.8645544,-7.33582000E-04

0,1668001101.3915546,-1.32549500E-03

0,1668001101.9115546,-1.59248400E-03

0,1668001102.4415545,-1.27428500E-03

0,1668001102.9535544,-1.05715300E-03

0,1668001103.4955544,-8.70662000E-04

0,1668001104.0155547,-1.07268300E-03

0,1668001104.5455544,-9.17177000E-04

0,1668001105.0675545,-7.03928000E-04

0,1668001105.5895545,-2.74608000E-04

0,1668001106.1215544,-1.04160300E-03

0,1668001106.6415544,-5.11797000E-04

0,1668001107.1645546,-9.50766000E-04

0,1668001107.6945546,-4.57329000E-04

0,1668001108.2155545,-5.67035000E-04

0,1668001108.7365544,-1.04370500E-03

0,1668001109.2665546,-7.68232000E-04

0,1668001109.7865546,-2.98141000E-04

0,1668001110.3165545,-5.04011000E-04

0,1668001110.8365545,-4.68071000E-04

0,1668001111.3665547,-4.89471000E-04

0,1668001111.8965545,+6.64438000E-04

0,1668001112.4205544,-5.64140000E-05

0,1668001112.9405544,-2.05235000E-04

0,1668001113.4705546,+2.65730000E-05

0,1668001113.9945545,-1.33021000E-04

0,1668001114.5145547,-1.81597000E-04

0,1668001115.0465546,-1.90351000E-04

0,1668001115.5665545,-2.82622000E-04

0,1668001116.0965545,-8.66610000E-05

0,1668001116.6205544,-4.00582000E-04

0,1668001117.1505547,-6.60630000E-05

0,1668001117.6725545,-4.47452000E-04

0,1668001118.1835546,-2.92916000E-04

0,1668001118.7095544,-7.56803000E-04

0,1668001119.2465546,-3.50840000E-04

0,1668001119.7765546,-2.48909000E-04

0,1668001120.2965546,+2.63960000E-05

0,1668001120.8265545,-7.02160000E-05

0,1668001121.3465545,+9.95990000E-05

0,1668001121.8765545,-2.36919000E-04

0,1668001122.4065547,-8.49650000E-05

0,1668001122.9265547,+2.70954000E-04

0,1668001123.4565544,-3.27400000E-04

0,1668001123.9785547,-3.81430000E-04

0,1668001124.4985547,-1.04668000E-04

0,1668001125.0285544,-1.23736000E-04

0,1668001125.5585546,+6.50840000E-05

0,1668001126.0785546,-2.99547000E-04

0,1668001126.6085546,+7.85320000E-05

0,1668001127.1285546,+5.65200000E-06

0,1668001127.6585546,+4.33720000E-05

0,1668001128.1785545,-9.46100000E-06

0,1668001128.7095544,+2.05570000E-05

0,1668001129.2305546,+1.88190000E-05

0,1668001129.7605546,+1.06060000E-05

0,1668001130.2805545,+1.17820000E-05

0,1668001130.8105547,+1.43430000E-05

0,1668001131.3385546,+1.37600000E-05

0,1668001131.8585546,+1.34690000E-05

0,1668001132.3885546,+1.37180000E-05

0,1668001132.9085546,+1.48220000E-05

0,1668001133.4385545,+1.54050000E-05

0,1668001133.9585545,+1.72360000E-05

0,1668001134.4825547,+1.90160000E-05

0,1668001135.0095544,+2.09320000E-05

0,1668001135.5365546,+2.36790000E-05

0,1668001136.0565546,+2.75410000E-05

0,1668001136.5865545,+3.09970000E-05

0,1668001137.1065545,+3.50040000E-05

0,1668001137.6365545,+4.11660000E-05

0,1668001138.1565545,+4.79420000E-05

0,1668001138.6865547,+5.37810000E-05

0,1668001139.2065547,+5.99010000E-05

0,1668001139.7365544,+6.77700000E-05

0,1668001140.2565546,+7.60340000E-05

0,1668001140.7765546,+8.21230000E-05

0,1668001141.3065546,+8.70780000E-05

0,1668001141.8265545,+9.23030000E-05

0,1668001142.3565545,+9.57270000E-05

0,1668001142.8765545,+9.73200000E-05

0,1668001143.4065547,+9.80170000E-05

0,1668001143.9265547,+9.89850000E-05

0,1668001144.4565544,+9.93910000E-05

0,1668001144.9765544,+9.91310000E-05

0,1668001145.5065546,+9.89850000E-05

0,1668001146.0265546,+9.91100000E-05

0,1668001146.5565546,+9.92660000E-05

0,1668001147.0765545,+9.94120000E-05

0,1668001147.6065545,+9.95370000E-05

0,1668001148.1265547,+9.95050000E-05

0,1668001148.6565545,+9.97030000E-05

0,1668001149.1735544,+1.00109000E-04

0,1668001149.7005546,+1.00963000E-04

0,1668001150.2305546,+1.01202000E-04

0,1668001150.7505546,+1.01421000E-04

0,1668001151.2805545,+1.02430000E-04

0,1668001151.8005545,+1.02836000E-04

0,1668001152.3305547,+1.02940000E-04

0,1668001152.8505547,+1.02909000E-04

0,1668001153.3785546,+1.03679000E-04

0,1668001153.9085546,+1.05240000E-04

0,1668001154.4285545,+1.06614000E-04

0,1668001154.9585545,+1.07614000E-04

0,1668001155.4785547,+1.09862000E-04

0,1668001155.9985547,+1.12839000E-04

0,1668001156.5285544,+1.15930000E-04

0,1668001157.0485544,+1.18667000E-04

0,1668001157.5785546,+1.22009000E-04

0,1668001158.0985546,+1.27348000E-04

0,1668001158.6285546,+1.33885000E-04

0,1668001159.1485546,+1.41795000E-04

0,1668001159.6785545,+1.49029000E-04

0,1668001160.1985545,+1.55940000E-04

0,1668001160.7285545,+1.62883000E-04

0,1668001161.2485545,+1.66828000E-04

0,1668001161.7785547,+1.68670000E-04

0,1668001162.2985547,+1.69482000E-04

0,1668001162.8285544,+1.70117000E-04

0,1668001163.3485546,+1.70845000E-04

0,1668001163.8785546,+1.70450000E-04

0,1668001164.3985546,+1.69690000E-04

0,1668001164.9185545,+1.69836000E-04

0,1668001165.4485545,+1.70783000E-04

0,1668001165.9685545,+1.71511000E-04

0,1668001166.4985547,+1.70949000E-04

0,1668001167.0185547,+1.71928000E-04

0,1668001167.5485544,+1.72646000E-04

0,1668001168.0685544,+1.74176000E-04

0,1668001168.5985546,+1.75227000E-04

0,1668001169.1185546,+1.75956000E-04

0,1668001169.6495545,+1.77569000E-04

0,1668001170.1695545,+1.79349000E-04

0,1668001170.6915545,+1.81087000E-04

0,1668001171.2215545,+1.82482000E-04

0,1668001171.7415545,+1.84147000E-04

0,1668001172.2715545,+1.86323000E-04

0,1668001172.7915545,+1.88894000E-04

0,1668001173.3215544,+1.90143000E-04

0,1668001173.8415544,+1.91132000E-04

0,1668001174.3715546,+1.91433000E-04

0,1668001174.8915546,+1.91943000E-04

0,1668001175.4215543,+1.90903000E-04

0,1668001175.9415545,+1.88956000E-04

0,1668001176.4715545,+1.87697000E-04

0,1668001176.9915545,+1.86385000E-04

0,1668001177.5215545,+1.85011000E-04

0,1668001178.0515544,+1.83408000E-04

0,1668001178.5715547,+1.82586000E-04

0,1668001179.1015544,+1.82628000E-04

0,1668001179.6215544,+1.82274000E-04

0,1668001180.1515546,+1.82961000E-04

0,1668001180.6715546,+1.84522000E-04

0,1668001181.2015545,+1.86094000E-04

0,1668001181.7215545,+1.88696000E-04

0,1668001182.2515545,+1.91985000E-04

0,1668001182.7715545,+1.95451000E-04

0,1668001183.3015544,+1.99760000E-04

0,1668001183.8315547,+2.06526000E-04

0,1668001184.3515546,+2.13354000E-04

0,1668001184.8815544,+2.18995000E-04

0,1668001185.4015543,+2.27301000E-04

0,1668001185.9315546,+2.33359000E-04

0,1668001186.4515545,+2.36544000E-04

0,1668001186.9815545,+2.42633000E-04

0,1668001187.5015545,+2.46817000E-04

0,1668001188.0315545,+2.48399000E-04

0,1668001188.5555546,+2.51345000E-04

0,1668001189.0855544,+2.55519000E-04

0,1668001189.6055543,+2.56653000E-04

0,1668001190.1355546,+2.58017000E-04

0,1668001190.6575544,+2.62086000E-04

0,1668001191.1875546,+2.63752000E-04

0,1668001191.7075546,+2.64584000E-04

0,1668001192.2375546,+2.67197000E-04

0,1668001192.7545545,+2.68873000E-04

0,1668001193.2845545,+2.68196000E-04

0,1668001193.8145547,+2.68613000E-04

0,1668001194.3345547,+2.68935000E-04

0,1668001194.8645544,+2.67103000E-04

0,1668001195.3905547,+2.65313000E-04

0,1668001195.9105546,+2.64616000E-04

0,1668001196.4405544,+2.63752000E-04

0,1668001196.9605546,+2.62003000E-04

0,1668001197.4905546,+2.60973000E-04

0,1668001198.0105546,+2.60973000E-04

0,1668001198.5405545,+2.60369000E-04

0,1668001199.0605545,+2.59453000E-04

0,1668001199.5905547,+2.59037000E-04

0,1668001200.1105547,+2.59724000E-04

0,1668001200.6305547,+2.60078000E-04

0,1668001201.1605544,+2.59307000E-04

0,1668001201.6845546,+2.59713000E-04

0,1668001202.2145545,+2.61285000E-04

0,1668001202.7345545,+2.61462000E-04

0,1668001203.2645545,+2.80593000E-04

0,1668001203.7845545,+2.40000000E-04

0,1668001204.3045545,+2.90897000E-04

0,1668001204.8345547,+2.72786000E-04

0,1668001205.3545547,+3.38443000E-04

0,1668001205.8845544,+2.12250000E-04

0,1668001206.4045546,+2.18496000E-04

0,1668001206.9345546,+4.01019000E-04

0,1668001207.4585545,+2.53395000E-04

0,1668001207.9785547,+1.21301000E-04

0,1668001208.5085545,+2.29539000E-04

0,1668001209.0285544,+4.88773000E-04

0,1668001209.5585546,+4.72890000E-04

0,1668001210.0785546,+2.61712000E-04

0,1668001210.6095545,+2.11553000E-04

0,1668001211.1305547,+1.55300000E-05

0,1668001211.6605544,+1.63757000E-04

0,1668001212.1805544,+2.09346000E-04

0,1668001212.7105546,+2.59339000E-04

0,1668001213.2305546,+1.72823000E-04

0,1668001213.7605546,+2.16560000E-04

0,1668001214.2805545,+2.85703000E-04

0,1668001214.8105547,+3.53983000E-04

0,1668001215.3305547,+2.57132000E-04

0,1668001215.8605545,+3.24121000E-04

0,1668001216.3805544,+2.80010000E-04

0,1668001216.9105546,+3.65672000E-04

0,1668001217.4305546,+2.95664000E-04

0,1668001217.9605546,+2.67749000E-04

0,1668001218.4805546,+3.98656000E-04

0,1668001219.0105546,+3.16689000E-04

0,1668001219.5305545,+3.25911000E-04

0,1668001220.0605545,+3.11423000E-04

0,1668001220.5805545,+2.46578000E-04

0,1668001221.1005545,+2.07993000E-04

0,1668001221.6305547,+2.56861000E-04

0,1668001222.1505547,+3.75612000E-04

0,1668001222.6805544,+2.25834000E-04

0,1668001223.2095544,+2.44017000E-04

0,1668001223.7295544,+2.78990000E-04

0,1668001224.2595546,+2.84486000E-04

0,1668001224.7795546,+3.14535000E-04

0,1668001225.3095543,+2.34212000E-04

0,1668001225.8295543,+2.22024000E-04

0,1668001226.3495545,+2.56164000E-04

0,1668001226.8795545,+2.41967000E-04

0,1668001227.3995545,+3.29013000E-04

0,1668001227.9295545,+2.45308000E-04

0,1668001228.4495544,+2.54915000E-04

0,1668001228.9795547,+1.84147000E-04

0,1668001229.4995546,+2.27676000E-04

0,1668001230.0295544,+2.69227000E-04

0,1668001230.5495543,+2.67030000E-04

0,1668001231.0735545,+2.21910000E-04

0,1668001231.6045544,+1.95191000E-04

0,1668001232.1245544,+4.18370000E-04

0,1668001232.6545546,+2.94249000E-04

0,1668001233.1745546,+2.74941000E-04

0,1668001233.6985545,+2.11501000E-04

0,1668001234.2285545,+3.42846000E-04

0,1668001234.7495544,+3.31126000E-04

0,1668001235.2795546,+2.34264000E-04

0,1668001235.7995546,+2.26573000E-04

0,1668001236.3295543,+2.75368000E-04

0,1668001236.8495545,+3.64371000E-04

0,1668001237.3835545,+2.56518000E-04

0,1668001237.9035547,+2.73380000E-04

0,1668001238.4335544,+2.96237000E-04

0,1668001238.9535544,+1.99032000E-04

0,1668001239.4775543,+2.78251000E-04

0,1668001240.0075545,+4.56455000E-04

0,1668001240.5275545,+2.52885000E-04

0,1668001241.0575545,+3.47457000E-04

0,1668001241.5775545,+2.69164000E-04

0,1668001242.1075547,+3.60468000E-04

0,1668001242.6275547,+3.97428000E-04

0,1668001243.1575544,+3.43939000E-04

0,1668001243.6875546,+4.32390000E-04

0,1668001244.2075546,+3.20114000E-04

0,1668001244.7375546,+1.89664000E-04

0,1668001245.2575545,+2.86328000E-04

0,1668001245.7875545,+3.29242000E-04

0,1668001246.3075545,+2.70424000E-04

0,1668001246.8375545,+3.45854000E-04

0,1668001247.3575544,+3.45105000E-04

0,1668001247.8875546,+3.71917000E-04

0,1668001248.4175544,+3.54618000E-04

0,1668001248.9375544,+2.68758000E-04

0,1668001249.4675546,+3.26140000E-04

0,1668001249.9875546,+3.22362000E-04

0,1668001250.5175545,+3.15721000E-04

0,1668001251.0375545,+3.23871000E-04

0,1668001251.5675545,+4.00759000E-04

0,1668001252.0895545,+3.24142000E-04

0,1668001252.6195545,+3.28274000E-04

0,1668001253.1395545,+3.42555000E-04

0,1668001253.6695545,+2.77918000E-04

0,1668001254.1895545,+3.64079000E-04

0,1668001254.7195547,+4.90907000E-04

0,1668001255.2465546,+3.59562000E-04

0,1668001255.7665546,+3.55555000E-04

0,1668001256.2965546,+4.16955000E-04

0,1668001256.8165545,+2.99599000E-04

0,1668001257.3465545,+3.34040000E-04

0,1668001257.8665547,+3.73541000E-04

0,1668001258.3915546,+2.83497000E-04

0,1668001258.9215543,+4.48180000E-04

0,1668001259.4425547,+3.69284000E-04

0,1668001259.9725544,+4.19328000E-04

0,1668001260.4925544,+3.42544000E-04

0,1668001261.0225546,+4.00905000E-04

0,1668001261.5425546,+4.29570000E-04

0,1668001262.0725546,+3.77902000E-04

0,1668001262.5925546,+3.69346000E-04

0,1668001263.1125546,+4.62367000E-04

0,1668001263.6425545,+3.80806000E-04

0,1668001264.1625547,+4.66895000E-04

0,1668001264.6925545,+3.96252000E-04

0,1668001265.2125545,+4.96590000E-04

0,1668001265.7425547,+4.41821000E-04

0,1668001266.2625546,+4.61982000E-04

0,1668001266.7925544,+4.29122000E-04

0,1668001267.3125546,+4.59765000E-04

0,1668001267.8425546,+3.28232000E-04

0,1668001268.3625546,+4.09138000E-04

0,1668001268.8925545,+4.39801000E-04

0,1668001269.4125545,+3.43647000E-04

0,1668001269.9425547,+4.38230000E-04

0,1668001270.4625547,+3.74571000E-04

0,1668001270.9925544,+5.21206000E-04

0,1668001271.5125544,+5.09559000E-04

0,1668001272.0425546,+4.96236000E-04

0,1668001272.5495543,+5.91068000E-04

0,1668001273.0875545,+3.70085000E-04

0,1668001273.6175544,+4.82351000E-04

0,1668001274.1375544,+3.13723000E-04

0,1668001274.6675546,+2.49648000E-04

0,1668001275.1875546,+4.11813000E-04

0,1668001275.7175543,+3.37871000E-04

0,1668001276.2375546,+3.63913000E-04

0,1668001276.7675545,+3.84480000E-04

0,1668001277.2875545,+3.87384000E-04

0,1668001277.8175545,+3.44792000E-04

0,1668001278.3375545,+3.98771000E-04

0,1668001278.8675547,+5.78911000E-04

0,1668001279.3875546,+4.49856000E-04

0,1668001279.9175544,+3.66307000E-04

0,1668001280.4375544,+5.80035000E-04

0,1668001280.9675546,+3.54660000E-04

0,1668001281.4875546,+5.70626000E-04

0,1668001282.0175545,+5.50600000E-04

0,1668001282.5375545,+3.85261000E-04

0,1668001283.0575545,+3.95097000E-04

0,1668001283.5875545,+5.33155000E-04

0,1668001284.1075547,+4.63574000E-04

0,1668001284.6375544,+5.77881000E-04

0,1668001285.1575544,+4.87066000E-04

0,1668001285.6875546,+3.38266000E-04

0,1668001286.2075546,+3.38193000E-04

0,1668001286.7375546,+5.49799000E-04

0,1668001287.2575545,+5.43564000E-04

0,1668001287.7875545,+4.87909000E-04

0,1668001288.3075545,+4.22086000E-04

0,1668001288.8375545,+3.87447000E-04

0,1668001289.3575544,+5.79338000E-04

0,1668001289.8875546,+4.85526000E-04

0,1668001290.4075546,+5.11703000E-04

0,1668001290.9375544,+5.13431000E-04

0,1668001291.4575543,+5.14430000E-04

0,1668001291.9875546,+5.14691000E-04

0,1668001292.5075545,+5.14170000E-04

0,1668001293.0315545,+5.15357000E-04

0,1668001293.5595546,+5.17896000E-04

0,1668001294.0795546,+5.19728000E-04

0,1668001294.6095545,+5.20218000E-04

0,1668001295.1295545,+5.22247000E-04

0,1668001295.6595545,+5.25120000E-04

0,1668001296.1795545,+5.26983000E-04

0,1668001296.7095544,+5.27889000E-04

0,1668001297.2295544,+5.29752000E-04

0,1668001297.7595546,+5.32333000E-04

0,1668001298.2795546,+5.33842000E-04

0,1668001298.8095543,+5.34498000E-04

0,1668001299.3295543,+5.36871000E-04

0,1668001299.8595545,+5.40389000E-04

0,1668001300.3795545,+5.41451000E-04

0,1668001300.9095545,+5.42273000E-04

0,1668001301.4295545,+5.44313000E-04

0,1668001301.9595547,+5.45666000E-04

0,1668001302.4795547,+5.46541000E-04

0,1668001303.0095544,+5.47706000E-04

0,1668001303.5295544,+5.49309000E-04

0,1668001304.0595546,+5.49746000E-04

0,1668001304.5895545,+5.50288000E-04

0,1668001305.1095545,+5.51537000E-04

0,1668001305.6395545,+5.52016000E-04

0,1668001306.1595545,+5.52421000E-04

0,1668001306.6895545,+5.52827000E-04

0,1668001307.2095544,+5.54170000E-04

0,1668001307.7395546,+5.54795000E-04

0,1668001308.2595546,+5.54878000E-04

0,1668001308.7895544,+5.56169000E-04

0,1668001309.3095543,+5.57574000E-04

0,1668001309.8395545,+5.57366000E-04

0,1668001310.3595545,+5.58271000E-04

0,1668001310.8895545,+5.59895000E-04

0,1668001311.4175544,+5.60832000E-04

0,1668001311.9375544,+5.60634000E-04

0,1668001312.4675546,+5.62393000E-04

0,1668001312.9875546,+5.63507000E-04

0,1668001313.5155547,+5.63454000E-04

0,1668001314.0465546,+5.64454000E-04

0,1668001314.5665545,+5.66129000E-04

0,1668001315.0965545,+5.66223000E-04

0,1668001315.6235545,+5.66702000E-04

0,1668001316.1435544,+5.68159000E-04

0,1668001316.6735544,+5.69283000E-04

0,1668001317.1935544,+5.69314000E-04

0,1668001317.7235546,+5.70147000E-04

0,1668001318.2435546,+5.71708000E-04

0,1668001318.7735543,+5.71334000E-04

0,1668001319.2935545,+5.71521000E-04

0,1668001319.8235545,+5.72375000E-04

0,1668001320.3435545,+5.73405000E-04

0,1668001320.8735545,+5.72916000E-04

0,1668001321.3935544,+5.73499000E-04

0,1668001321.9235547,+5.74560000E-04

0,1668001322.4415545,+5.75164000E-04

0,1668001322.9715545,+5.74737000E-04

0,1668001323.4915545,+5.75809000E-04

0,1668001324.0215545,+5.76809000E-04

0,1668001324.5415545,+5.77475000E-04

0,1668001325.0715547,+5.78235000E-04

0,1668001325.5915546,+5.79567000E-04

0,1668001326.1215544,+5.81524000E-04

0,1668001326.6415544,+5.83272000E-04

0,1668001327.1715546,+5.84469000E-04

0,1668001327.6915545,+5.86832000E-04

0,1668001328.2145545,+5.89528000E-04

0,1668001328.7465546,+5.91755000E-04

0,1668001329.2665546,+5.93223000E-04

0,1668001329.7965546,+5.95606000E-04

0,1668001330.3165545,+5.98063000E-04

0,1668001330.8465545,+5.99676000E-04

0,1668001331.3665547,+6.00540000E-04

0,1668001331.8965545,+6.02216000E-04

0,1668001332.4165545,+6.04131000E-04

0,1668001332.9465547,+6.04870000E-04

0,1668001333.4665546,+6.05599000E-04

0,1668001333.9965546,+6.06671000E-04

0,1668001334.5125544,+6.07993000E-04

0,1668001335.0425546,+6.08919000E-04

0,1668001335.5625546,+6.09762000E-04

0,1668001336.0925546,+6.10886000E-04

0,1668001336.6125546,+6.12520000E-04

0,1668001337.1425545,+6.13696000E-04

0,1668001337.6625547,+6.14373000E-04

0,1668001338.1925545,+6.16038000E-04

0,1668001338.7125545,+6.17818000E-04

0,1668001339.2425547,+6.18672000E-04

0,1668001339.7625546,+6.19275000E-04

0,1668001340.2925544,+6.20816000E-04

0,1668001340.8225546,+6.21596000E-04

0,1668001341.3425546,+6.22242000E-04

0,1668001341.8725545,+6.23106000E-04

0,1668001342.3925545,+6.23980000E-04

0,1668001342.9125545,+6.25364000E-04

0,1668001343.4425547,+6.26010000E-04

0,1668001343.9625547,+6.27061000E-04

0,1668001344.4925544,+6.28799000E-04

0,1668001345.0125544,+6.29673000E-04

0,1668001345.5425546,+6.30506000E-04

0,1668001346.0625546,+6.31578000E-04

0,1668001346.5925546,+6.33119000E-04

0,1668001347.1125546,+6.34451000E-04

0,1668001347.6425545,+6.34555000E-04

0,1668001348.1625547,+6.35544000E-04

0,1668001348.6925545,+6.37490000E-04

0,1668001349.2125545,+6.38427000E-04

0,1668001349.7425547,+6.37979000E-04

0,1668001350.2625546,+6.38562000E-04

0,1668001350.7925544,+6.40269000E-04

0,1668001351.3125546,+6.41144000E-04

0,1668001351.8425546,+6.41008000E-04

0,1668001352.3625546,+6.41123000E-04

0,1668001352.8925545,+6.43184000E-04

0,1668001353.4125545,+6.44225000E-04

0,1668001353.9325545,+6.44183000E-04

0,1668001354.4635546,+6.45578000E-04

0,1668001354.9915545,+6.47587000E-04

0,1668001355.5115545,+6.48294000E-04

0,1668001356.0315545,+6.48804000E-04

0,1668001356.5615544,+6.50064000E-04

0,1668001357.0815544,+6.51708000E-04

0,1668001357.6115546,+6.52791000E-04

0,1668001358.1315546,+6.53561000E-04

0,1668001358.6545546,+6.54779000E-04

0,1668001359.1845546,+6.56278000E-04

0,1668001359.7045546,+6.57818000E-04

0,1668001360.2255545,+6.58984000E-04

0,1668001360.7575545,+6.60472000E-04

0,1668001361.2875545,+6.62138000E-04

0,1668001361.8075545,+6.63751000E-04

0,1668001362.3375545,+6.65531000E-04

0,1668001362.8575544,+6.66707000E-04

0,1668001363.3845544,+6.68050000E-04

0,1668001363.9145546,+6.69611000E-04

0,1668001364.4345546,+6.70943000E-04

0,1668001364.9645545,+6.72182000E-04

0,1668001365.4845545,+6.72723000E-04

0,1668001366.0145547,+6.73951000E-04

0,1668001366.5345547,+6.74586000E-04

0,1668001367.0645545,+6.74919000E-04

0,1668001367.5845544,+6.75440000E-04

0,1668001368.1145546,+6.75835000E-04

0,1668001368.6345546,+6.76408000E-04

0,1668001369.1645546,+6.76918000E-04

0,1668001369.6845546,+6.77813000E-04

0,1668001370.2145545,+6.78729000E-04

0,1668001370.7445545,+6.79749000E-04

0,1668001371.2645545,+6.81268000E-04

0,1668001371.7915545,+6.82684000E-04

0,1668001372.3115547,+6.83912000E-04

0,1668001372.8415544,+6.85692000E-04

0,1668001373.3715546,+6.87722000E-04

0,1668001373.8915546,+6.88565000E-04

0,1668001374.4215543,+6.88783000E-04

0,1668001374.9395545,+6.90594000E-04

0,1668001375.4725544,+6.92104000E-04

0,1668001375.9925544,+6.92988000E-04

0,1668001376.5225546,+6.94071000E-04

0,1668001377.0425546,+6.95934000E-04

0,1668001377.5725546,+6.96652000E-04

0,1668001378.0925546,+6.97017000E-04

0,1668001378.6235545,+6.98026000E-04

0,1668001379.1435544,+6.99473000E-04

0,1668001379.6735544,+6.99879000E-04

0,1668001380.1935544,+6.99973000E-04

0,1668001380.7235546,+3.51600000E-04

0,1668001381.2435546,+7.07269000E-04

0,1668001381.7735543,+5.86790000E-04

0,1668001382.2975545,+5.76476000E-04

0,1668001382.8275545,+6.40457000E-04

0,1668001383.3475544,+6.28216000E-04

0,1668001383.8775544,+5.44386000E-04

0,1668001384.3975544,+6.34753000E-04

0,1668001384.9275546,+6.04141000E-04

0,1668001385.4475546,+5.93847000E-04

0,1668001385.9775543,+6.21492000E-04

0,1668001386.4975545,+6.99171000E-04

0,1668001387.0275545,+6.58692000E-04

0,1668001387.5475545,+6.69809000E-04

0,1668001388.0775545,+6.67207000E-04

0,1668001388.5975544,+5.67337000E-04

0,1668001389.1275547,+6.09429000E-04

0,1668001389.6475546,+6.61638000E-04

0,1668001390.1775544,+5.65338000E-04

0,1668001390.6975543,+6.86348000E-04

0,1668001391.2275546,+6.17360000E-04

0,1668001391.7475545,+6.54352000E-04

0,1668001392.2775545,+6.55747000E-04

0,1668001392.7975545,+6.87514000E-04

0,1668001393.3175545,+6.48638000E-04

0,1668001393.8475544,+6.82341000E-04

0,1668001394.3675547,+6.24542000E-04

0,1668001394.8975544,+6.37521000E-04

0,1668001395.4235547,+6.78999000E-04

0,1668001395.9435546,+7.07175000E-04

0,1668001396.4735544,+6.89314000E-04

0,1668001396.9935544,+6.72754000E-04

0,1668001397.5235546,+7.34924000E-04

0,1668001398.0435545,+7.28513000E-04

0,1668001398.5705547,+7.19478000E-04

0,1668001399.0905547,+6.65739000E-04

0,1668001399.6205544,+6.58880000E-04

0,1668001400.1405544,+7.31250000E-04

0,1668001400.6705546,+6.52978000E-04

0,1668001401.1905546,+6.98224000E-04

0,1668001401.7205546,+7.42679000E-04

0,1668001402.2405546,+7.04334000E-04

0,1668001402.7705545,+6.97350000E-04

0,1668001403.2905545,+7.29543000E-04

0,1668001403.8205545,+6.55945000E-04

0,1668001404.3405545,+6.41040000E-04

0,1668001404.8705547,+5.89611000E-04

0,1668001405.3905547,+6.24948000E-04

0,1668001405.9205544,+6.26041000E-04

0,1668001406.4405544,+7.47144000E-04

0,1668001406.9705546,+6.94862000E-04

0,1668001407.4905546,+6.81695000E-04

0,1668001408.0205545,+7.06467000E-04

0,1668001408.5405545,+6.92614000E-04

0,1668001409.0705547,+6.57121000E-04

0,1668001409.5905547,+7.51422000E-04

0,1668001410.1205544,+7.64266000E-04

0,1668001410.6405544,+7.51786000E-04

0,1668001411.1705546,+7.69907000E-04

0,1668001411.6905546,+7.24006000E-04

0,1668001412.2205546,+7.13941000E-04

0,1668001412.7405546,+6.76491000E-04

0,1668001413.2705545,+7.00483000E-04

0,1668001413.7905545,+7.03012000E-04

0,1668001414.3205545,+7.59124000E-04

0,1668001414.8405545,+7.66025000E-04

0,1668001415.3615544,+7.62299000E-04

0,1668001415.8855543,+7.22132000E-04

0,1668001416.4155545,+8.80779000E-04

0,1668001416.9355545,+7.73852000E-04

0,1668001417.4655545,+6.17006000E-04

0,1668001417.9855545,+6.75742000E-04

0,1668001418.5155547,+1.05836900E-03

0,1668001419.0355546,+6.73046000E-04

0,1668001419.5655544,+7.94825000E-04

0,1668001420.0855544,+7.77568000E-04

0,1668001420.6155546,+7.61685000E-04

0,1668001421.1355546,+9.04031000E-04

0,1668001421.6655545,+7.00889000E-04

0,1668001422.1855545,+7.83116000E-04

0,1668001422.7155545,+7.13847000E-04

0,1668001423.2355545,+7.80253000E-04

0,1668001423.7655544,+7.00472000E-04

0,1668001424.2855544,+6.90209000E-04

0,1668001424.8155546,+7.44084000E-04

0,1668001425.3355546,+7.46998000E-04

0,1668001425.8655543,+7.89975000E-04

0,1668001426.3855543,+8.49980000E-04

0,1668001426.9155545,+7.64360000E-04

0,1668001427.4355545,+7.17105000E-04

0,1668001427.9655545,+6.48378000E-04

0,1668001428.4855545,+3.71001000E-04

0,1668001429.0155547,+5.24360000E-04

0,1668001429.5355546,+7.11328000E-04

0,1668001430.0655544,+6.67748000E-04

0,1668001430.5855544,+7.94222000E-04

0,1668001431.1155546,+8.87961000E-04

0,1668001431.6365545,+7.50339000E-04

0,1668001432.1665547,+7.41867000E-04

0,1668001432.6865547,+8.31338000E-04

0,1668001433.2165544,+7.03147000E-04

0,1668001433.7435546,+8.43006000E-04

0,1668001434.2535543,+6.84152000E-04

0,1668001434.7925544,+7.41732000E-04

0,1668001435.3225546,+8.08460000E-04

0,1668001435.8435545,+7.84563000E-04

0,1668001436.3645544,+8.71900000E-04

0,1668001436.8945546,+7.94919000E-04

0,1668001437.4145546,+8.44162000E-04

0,1668001437.9445546,+7.70063000E-04

0,1668001438.4745545,+7.80024000E-04

0,1668001438.9945545,+7.87362000E-04

0,1668001439.5245545,+8.21648000E-04

0,1668001440.0445545,+7.85749000E-04

0,1668001440.5745547,+8.04422000E-04

0,1668001441.0945547,+7.98645000E-04

0,1668001441.6245544,+8.17641000E-04

0,1668001442.1445546,+8.08533000E-04

0,1668001442.6745546,+8.34815000E-04

0,1668001443.1945546,+8.13540000E-04

0,1668001443.7275546,+8.16017000E-04

0,1668001444.2535543,+7.31791000E-04

0,1668001444.7805545,+8.75814000E-04

0,1668001445.3005545,+7.75424000E-04

0,1668001445.8305547,+7.67107000E-04

0,1668001446.3505547,+7.57323000E-04

0,1668001446.8805544,+1.15043200E-03

0,1668001447.4005544,+8.01206000E-04

0,1668001447.9305546,+2.37189000E-04

0,1668001448.4545546,+3.05282000E-04

0,1668001448.9745545,+2.07848000E-04

0,1668001449.4985547,+3.52474000E-04

0,1668001450.0285544,+3.59916000E-04

0,1668001450.5485544,+1.71928000E-04

0,1668001451.0785546,+4.88825000E-04

0,1668001451.5985546,+5.14201000E-04

0,1668001452.1285546,-2.69955000E-04

0,1668001452.6485546,+2.68987000E-04

0,1668001453.1785545,+4.07368000E-04

0,1668001453.6985545,+1.11325300E-03

0,1668001454.2285545,+4.69226000E-04

0,1668001454.7485545,+1.97179000E-04

0,1668001455.2785547,+4.98963000E-04

0,1668001455.7985547,+7.98989000E-04

0,1668001456.3235545,+3.16731000E-04

0,1668001456.8545547,+6.26499000E-04

0,1668001457.3745546,+7.34196000E-04

0,1668001457.9045546,+9.76530000E-05

0,1668001458.4245546,+1.07822000E-04

0,1668001458.9545546,+4.26437000E-04

0,1668001459.4745545,+4.70912000E-04

0,1668001459.9945545,+1.53338000E-04

0,1668001460.5245545,+5.72843000E-04

0,1668001461.0445545,+3.57439000E-04

0,1668001461.5745547,+2.66350000E-05

0,1668001462.0945547,+4.71558000E-04

0,1668001462.6245544,+4.29830000E-04

0,1668001463.1445546,+3.45365000E-04

0,1668001463.6745546,+4.43247000E-04

0,1668001464.1945546,+3.37788000E-04

0,1668001464.7245545,+3.74811000E-04

0,1668001465.2445545,+7.24891000E-04

0,1668001465.7745547,+8.03537000E-04

0,1668001466.2945547,+4.85266000E-04

0,1668001466.8245544,+7.48268000E-04

0,1668001467.3445544,+2.49080000E-05

0,1668001467.8745546,+9.24900000E-05

0,1668001468.3945546,-1.80005000E-04

0,1668001468.9105546,+2.37314000E-04

0,1668001469.4355545,-1.36518000E-04

0,1668001469.9765544,-1.97870000E-05

0,1668001470.4965546,-2.95560000E-04

0,1668001471.0265546,-5.52349000E-04

0,1668001471.5465546,-6.18932000E-04

0,1668001472.0745547,-3.11891000E-04

0,1668001472.5945547,-4.19911000E-04

0,1668001473.1245544,-2.79312000E-04

0,1668001473.6445546,-2.59255000E-04

0,1668001474.1745546,-8.63865000E-04

0,1668001474.7005546,-1.77777000E-04

0,1668001475.2205546,-5.61654000E-04

0,1668001475.7445545,-5.03918000E-04

